I [mA]	0.100000
H [kOe]	20.095000
Time [s]	V_xx [mV]	V_xy [mV]
0.00000	1145.49000	-1.79100
0.26302	1143.57000	-1.79000
0.54203	1143.11000	-1.79000
0.82205	1142.58000	-1.79000
1.31508	1146.84000	-1.79000
1.59109	1146.28000	-1.79300
1.86211	1146.46000	-1.79100
2.14212	1147.57000	-1.78900
2.42214	1146.81000	-1.79300
2.70215	1146.55000	-1.78900
2.98217	1146.95000	-1.79000
3.26219	1147.53000	-1.78800
3.54120	1147.91000	-1.79000
3.81322	1146.59000	-1.78900
4.08123	1146.38000	-1.79000
4.35325	1145.42000	-1.78600
4.62226	1146.09000	-1.78700
4.90128	1146.37000	-1.78600
5.18130	1146.83000	-1.78900
5.46231	1147.33000	-1.78700
5.73933	1146.98000	-1.78500
6.01334	1147.83000	-1.79000
6.28136	1145.47000	-1.78600
6.56138	1145.90000	-1.78400
6.84139	1147.10000	-1.78500
7.12141	1146.47000	-1.78300
7.39942	1146.61000	-1.78100
7.67344	1145.89000	-1.78200
7.94145	1146.06000	-1.78300
8.22147	1146.16000	-1.78300
8.49949	1146.08000	-1.78200
8.77150	1145.27000	-1.77600
9.03952	1145.56000	-1.77700
9.31353	1144.89000	-1.77900
9.57955	1145.32000	-1.77600
9.85356	1144.62000	-1.77300
10.12158	1144.88000	-1.77400
10.39960	1145.06000	-1.77100
10.67161	1144.19000	-1.77200
10.94163	1144.58000	-1.76700
11.21964	1144.63000	-1.77100
11.49166	1143.72000	-1.76600
11.75967	1144.01000	-1.76700
12.03169	1143.31000	-1.76600
12.29970	1143.70000	-1.76600
12.57172	1144.20000	-1.76300
12.83973	1144.09000	-1.76100
13.11175	1143.88000	-1.75900
13.37977	1145.39000	-1.76100
13.65078	1143.63000	-1.75500
13.91980	1143.05000	-1.75300
14.19081	1141.81000	-1.75400
14.45983	1141.83000	-1.75200
14.73084	1141.20000	-1.75200
14.99986	1141.57000	-1.74600
15.27087	1140.50000	-1.74500
15.53989	1141.03000	-1.74600
15.81090	1140.61000	-1.74300
16.07992	1141.05000	-1.74000
16.35094	1140.67000	-1.73800
16.61995	1141.08000	-1.73900
16.89097	1140.39000	-1.73400
17.15998	1140.96000	-1.73300
17.43300	1140.31000	-1.72900
17.69901	1140.67000	-1.72800
17.97103	1140.17000	-1.73000
18.24204	1140.58000	-1.72700
18.52006	1140.84000	-1.72600
18.79108	1140.17000	-1.72400
19.05909	1140.47000	-1.72000
19.33111	1140.10000	-1.71700
19.60112	1140.35000	-1.71600
19.87914	1140.48000	-1.71500
20.15115	1139.83000	-1.71000
20.42117	1140.17000	-1.71100
20.69918	1140.27000	-1.70800
20.97120	1139.46000	-1.70500
21.24022	1139.90000	-1.70200
21.51123	1139.66000	-1.69900
21.77925	1140.30000	-1.69800
22.05126	1140.29000	-1.69700
22.31928	1140.86000	-1.69500
22.59129	1140.65000	-1.69200
22.85931	1141.04000	-1.68600
23.13132	1140.76000	-1.68600
23.40134	1141.38000	-1.68100
23.68135	1141.80000	-1.67900
23.96137	1142.30000	-1.67800
24.23939	1142.51000	-1.67700
24.51340	1141.90000	-1.67400
24.77942	1142.37000	-1.67100
25.05343	1142.26000	-1.66600
25.32145	1142.71000	-1.66500
25.59946	1143.31000	-1.66400
25.87148	1142.84000	-1.66000
26.13950	1143.38000	-1.65800
26.41151	1143.45000	-1.65600
26.67953	1144.12000	-1.65000
26.95154	1143.83000	-1.64900
27.21956	1144.33000	-1.64600
27.49057	1144.18000	-1.64000
27.75959	1144.83000	-1.64100
28.03160	1144.61000	-1.63700
28.29962	1145.14000	-1.63200
28.57263	1145.11000	-1.63100
28.83965	1145.86000	-1.62700
29.11167	1145.69000	-1.62500
29.37968	1146.15000	-1.62200
29.65170	1146.02000	-1.62000
29.91971	1146.52000	-1.61500
30.19173	1146.21000	-1.61300
30.45974	1146.48000	-1.61100
30.73176	1145.93000	-1.60500
30.99877	1146.32000	-1.60700
31.27279	1145.58000	-1.60100
31.53980	1145.96000	-1.60100
31.81082	1145.46000	-1.59400
32.07884	1145.73000	-1.59100
32.35085	1145.28000	-1.59100
32.61887	1145.78000	-1.58700
32.89088	1145.24000	-1.58600
33.15890	1145.55000	-1.58300
33.43291	1145.05000	-1.57800
33.69893	1145.37000	-1.57500
33.97094	1144.69000	-1.57500
34.23896	1145.12000	-1.57000
34.51097	1144.36000	-1.56700
34.78099	1144.80000	-1.56400
35.06101	1145.03000	-1.56000
35.33902	1145.09000	-1.55300
35.61204	1144.29000	-1.55000
35.88105	1144.38000	-1.54900
36.15907	1144.35000	-1.54700
36.43208	1143.64000	-1.54400
36.69910	1143.86000	-1.53800
36.97112	1143.09000	-1.53600
37.24113	1143.24000	-1.53500
37.52115	1143.39000	-1.52900
37.79916	1143.38000	-1.52600
38.07218	1142.64000	-1.52400
38.33919	1142.92000	-1.51700
38.61221	1142.35000	-1.51700
38.87922	1142.51000	-1.51700
39.15224	1141.86000	-1.51000
39.41925	1142.06000	-1.50700
39.69227	1141.18000	-1.50300
39.95929	1141.44000	-1.49800
40.23230	1140.59000	-1.49600
40.49932	1140.83000	-1.49600
40.77233	1140.25000	-1.49100
41.04135	1140.72000	-1.48800
41.32136	1140.81000	-1.48200
41.59938	1141.02000	-1.48100
41.87240	1140.42000	-1.47500
42.13941	1140.61000	-1.47400
42.41243	1140.01000	-1.46800
42.67944	1140.47000	-1.46400
42.95246	1140.11000	-1.46100
43.21947	1140.60000	-1.46200
43.49249	1140.43000	-1.45500
43.75950	1140.76000	-1.45200
44.03252	1140.13000	-1.44700
44.30153	1140.49000	-1.44400
44.57955	1140.63000	-1.44100
44.85257	1140.01000	-1.43600
45.12158	1140.36000	-1.43300
45.39960	1140.71000	-1.43200
45.67261	1140.14000	-1.43000
45.93963	1140.45000	-1.42200
46.21264	1139.96000	-1.42200
46.47866	1140.48000	-1.41500
46.75267	1139.86000	-1.41200
47.02169	1140.31000	-1.41200
47.29871	1140.57000	-1.40600
47.57272	1140.04000	-1.40500
47.84174	1140.57000	-1.39900
48.12075	1140.98000	-1.39400
48.39877	1141.29000	-1.39100
48.67278	1140.94000	-1.38600
48.93880	1141.37000	-1.38500
49.21282	1140.76000	-1.38100
49.47883	1141.11000	-1.38000
49.75285	1140.57000	-1.37400
50.01886	1140.86000	-1.37100
50.29288	1140.43000	-1.36700
50.55889	1140.86000	-1.36600
50.83291	1140.60000	-1.36200
51.09892	1141.14000	-1.35900
51.37094	1140.67000	-1.35200
51.64095	1141.03000	-1.34700
51.91897	1141.46000	-1.34400
52.19199	1140.96000	-1.34300
52.45900	1141.44000	-1.34200
52.73202	1141.11000	-1.33700
52.99903	1141.62000	-1.33000
53.27205	1141.63000	-1.32400
53.53906	1142.26000	-1.32200
53.81108	1142.10000	-1.32200
54.07909	1142.58000	-1.31800
54.35211	1142.48000	-1.31000
54.62112	1142.98000	-1.31300
54.89914	1143.24000	-1.30400
55.17216	1143.00000	-1.30200
55.43917	1143.48000	-1.29900
55.71219	1143.23000	-1.29700
55.97920	1143.68000	-1.29000
56.25222	1143.30000	-1.29100
56.52123	1143.77000	-1.28700
56.79925	1143.94000	-1.28200
57.07327	1143.48000	-1.27800
57.34128	1143.91000	-1.27300
57.61930	1144.16000	-1.27200
57.89231	1143.79000	-1.26200
58.16133	1144.18000	-1.26300
58.43934	1144.50000	-1.25400
58.71036	1144.15000	-1.25200
58.98137	1144.61000	-1.25000
59.25939	1145.01000	-1.24300
59.53041	1144.59000	-1.24500
59.80142	1145.25000	-1.23600
60.08144	1145.65000	-1.23300
60.36145	1145.84000	-1.22700
60.63847	1145.82000	-1.22700
60.91248	1145.39000	-1.22400
61.18150	1145.79000	-1.21900
61.45852	1146.04000	-1.21600
61.73253	1145.65000	-1.21300
61.99855	1146.21000	-1.21200
62.27256	1145.75000	-1.20600
62.53858	1145.96000	-1.20100
62.81259	1145.18000	-1.20000
63.07861	1145.50000	-1.19500
63.35162	1144.81000	-1.19100
63.62064	1145.51000	-1.18700
63.89866	1145.89000	-1.18400
64.17267	1145.57000	-1.18200
64.43869	1146.25000	-1.17800
64.71070	1145.87000	-1.17300
64.97872	1146.34000	-1.16600
65.25073	1145.89000	-1.16500
65.51875	1146.25000	-1.16300
65.79076	1145.83000	-1.15600
66.05878	1146.27000	-1.15200
66.33179	1145.80000	-1.15200
66.59881	1146.21000	-1.14600
66.87082	1145.87000	-1.14200
67.13884	1146.37000	-1.13600
67.41086	1145.72000	-1.13600
67.67887	1146.03000	-1.13100
67.95089	1145.31000	-1.12800
68.21890	1145.69000	-1.12700
68.49092	1144.95000	-1.12200
68.75893	1145.15000	-1.11400
69.03095	1144.61000	-1.11000
69.29896	1144.97000	-1.11000
69.57098	1144.35000	-1.10700
69.83899	1144.80000	-1.10100
70.11101	1144.31000	-1.09500
70.37903	1144.55000	-1.09600
70.65204	1143.83000	-1.09100
70.91906	1144.08000	-1.08400
71.19207	1143.61000	-1.08000
71.45909	1143.81000	-1.08200
71.73210	1143.01000	-1.07800
71.99912	1143.33000	-1.07000
72.27213	1142.49000	-1.06800
72.53915	1142.60000	-1.06300
72.81216	1141.80000	-1.06100
73.07918	1142.11000	-1.05800
73.35020	1141.51000	-1.05200
73.61921	1141.86000	-1.04700
73.89223	1141.41000	-1.04600
74.15924	1141.75000	-1.04500
74.43026	1141.07000	-1.04000
74.69927	1141.29000	-1.03300
74.97229	1140.58000	-1.03300
75.23930	1140.85000	-1.02900
75.51232	1139.98000	-1.02300
75.77833	1140.30000	-1.01900
76.05035	1139.41000	-1.01500
76.32137	1139.91000	-1.01100
76.60138	1140.13000	-1.01000
76.87840	1140.31000	-1.00200
77.15241	1139.82000	-1.00200
77.41843	1140.24000	-0.99700
77.69244	1139.69000	-0.99400
77.95846	1139.98000	-0.99100
78.23248	1139.36000	-0.98600
78.49849	1139.80000	-0.98100
78.77251	1139.17000	-0.98000
79.03852	1139.84000	-0.97300
79.31254	1139.75000	-0.97100
79.58055	1140.30000	-0.96800
79.86057	1140.59000	-0.96800
80.13858	1140.92000	-0.96000
80.41260	1140.56000	-0.95600
80.67861	1141.07000	-0.95300
80.95263	1140.97000	-0.95000
81.21865	1141.50000	-0.94700
81.49066	1141.48000	-0.94000
81.75868	1142.08000	-0.93800
82.03169	1141.99000	-0.93200
82.29871	1142.42000	-0.92700
82.57072	1142.11000	-0.92600
82.83874	1142.61000	-0.92100
83.11175	1142.33000	-0.91900
83.37877	1142.85000	-0.91200
83.65178	1142.73000	-0.91000
83.91880	1143.07000	-0.90800
84.19082	1142.97000	-0.90200
84.45883	1143.38000	-0.89800
84.73085	1143.10000	-0.89700
84.99886	1143.48000	-0.89300
85.27188	1143.14000	-0.88800
85.53889	1143.54000	-0.88700
85.81191	1143.33000	-0.87900
86.07892	1143.62000	-0.87800
86.35094	1143.39000	-0.87500
86.61895	1143.75000	-0.87100
86.89197	1143.56000	-0.86500
87.15899	1144.04000	-0.86300
87.43000	1143.76000	-0.85800
87.69902	1144.13000	-0.85300
87.97003	1143.91000	-0.85200
88.23905	1144.34000	-0.84800
88.51006	1143.88000	-0.84400
88.77908	1144.33000	-0.83700
89.05009	1144.09000	-0.83700
89.31811	1144.49000	-0.83100
89.59013	1144.23000	-0.82900
89.85814	1144.55000	-0.82500
90.13016	1144.33000	-0.82200
90.39817	1144.74000	-0.81900
90.67019	1144.66000	-0.81300
90.93820	1145.11000	-0.80600
91.20922	1144.78000	-0.80600
91.47823	1145.18000	-0.80100
91.75025	1145.06000	-0.79700
92.01826	1145.39000	-0.79600
92.29028	1145.01000	-0.78900
92.55829	1145.28000	-0.78700
92.83031	1144.90000	-0.78300
93.09832	1145.43000	-0.77900
93.37034	1145.25000	-0.77400
93.63836	1145.57000	-0.77300
93.91037	1145.15000	-0.76900
94.17839	1145.63000	-0.76200
94.45040	1145.29000	-0.76100
94.71842	1145.77000	-0.75600
94.99043	1145.74000	-0.75300
95.25845	1146.18000	-0.74900
95.53046	1145.68000	-0.74700
95.79848	1146.00000	-0.74000
96.07050	1145.52000	-0.73800
96.33851	1145.99000	-0.73500
96.61053	1145.69000	-0.73100
96.87854	1146.35000	-0.72600
97.15056	1145.97000	-0.72000
97.41857	1146.49000	-0.71800
97.69059	1146.28000	-0.71400
97.95860	1146.64000	-0.71200
98.23062	1146.23000	-0.71000
98.49863	1146.53000	-0.70300
98.77065	1145.96000	-0.70200
99.03866	1146.22000	-0.69600
99.31068	1145.58000	-0.69300
99.57870	1146.04000	-0.69000
99.85071	1145.50000	-0.68200
100.11873	1145.81000	-0.68000
100.39074	1144.92000	-0.67600
100.65876	1145.16000	-0.67600
100.93077	1144.59000	-0.66700
101.19879	1145.06000	-0.66600
101.47080	1144.62000	-0.66200
101.73882	1145.14000	-0.65800
102.01084	1144.63000	-0.65700
102.27885	1145.08000	-0.64800
102.55087	1144.41000	-0.64600
102.81888	1144.84000	-0.64400
103.08990	1144.57000	-0.64100
103.35891	1145.08000	-0.63600
103.62993	1144.37000	-0.63100
103.89894	1144.61000	-0.62900
104.16996	1144.00000	-0.62800
104.43797	1145.61000	-0.62400
104.70999	1145.38000	-0.62000
104.97800	1144.70000	-0.61200
105.25002	1143.06000	-0.61000
105.51804	1143.10000	-0.60900
105.79005	1142.41000	-0.60400
106.05807	1142.74000	-0.59800
106.33008	1142.09000	-0.59800
106.59810	1142.72000	-0.59400
106.87011	1142.27000	-0.58600
107.13813	1142.81000	-0.58300
107.41014	1142.22000	-0.57800
107.67816	1142.61000	-0.57500
107.95017	1141.96000	-0.57300
108.21819	1142.40000	-0.56800
108.49021	1141.81000	-0.56400
108.75822	1142.45000	-0.55900
109.03024	1141.71000	-0.55700
109.29825	1142.29000	-0.55300
109.57027	1141.76000	-0.55100
109.83828	1142.29000	-0.54600
110.11030	1142.04000	-0.54400
110.37831	1142.44000	-0.53800
110.65033	1141.92000	-0.53300
110.91834	1142.46000	-0.53200
111.19036	1142.16000	-0.52700
111.45838	1142.46000	-0.52300
111.73039	1141.93000	-0.51900
111.99841	1142.28000	-0.51500
112.27042	1141.73000	-0.51000
112.53844	1142.19000	-0.50800
112.81045	1141.43000	-0.50300
113.07847	1141.93000	-0.50000
113.35048	1141.33000	-0.49500
113.61850	1141.60000	-0.49200
113.89051	1141.10000	-0.49000
114.15853	1141.77000	-0.48500
114.43055	1141.35000	-0.48300
114.69856	1141.85000	-0.48000
114.97058	1141.35000	-0.47500
115.23759	1142.03000	-0.46900
115.51061	1142.16000	-0.46500
115.77862	1142.58000	-0.46700
116.05064	1141.66000	-0.46100
116.31865	1141.86000	-0.45600
116.59067	1141.37000	-0.45500
116.85868	1141.88000	-0.44600
117.13070	1141.32000	-0.44600
117.39872	1141.83000	-0.44000
117.67073	1141.34000	-0.43800
117.93875	1141.74000	-0.43300
118.20976	1141.44000	-0.42700
118.47778	1141.68000	-0.42600
118.74979	1141.07000	-0.42200
119.01781	1141.59000	-0.41900
119.29082	1141.03000	-0.41000
119.55784	1141.47000	-0.40800
119.83085	1140.86000	-0.40600
120.09787	1141.44000	-0.40000
120.37188	1141.12000	-0.40100
120.63790	1141.61000	-0.39300
120.90992	1141.07000	-0.39000
121.17793	1141.28000	-0.38900
121.44995	1140.60000	-0.38800
121.71796	1141.02000	-0.38100
121.98998	1140.72000	-0.37700
122.25799	1141.08000	-0.37000
122.53001	1140.69000	-0.36800
122.79802	1141.25000	-0.36800
123.07004	1140.62000	-0.36400
123.33805	1140.93000	-0.35700
123.61007	1140.50000	-0.35600
123.87809	1140.79000	-0.34800
124.15010	1140.04000	-0.34500
124.41812	1140.50000	-0.34200
124.69113	1140.21000	-0.34100
124.95815	1140.64000	-0.33400
125.23016	1140.26000	-0.32900
125.49918	1140.58000	-0.32700
125.77219	1140.20000	-0.32200
126.03821	1140.66000	-0.32100
126.31023	1140.41000	-0.31900
126.57824	1140.93000	-0.31300
126.85026	1140.74000	-0.30600
127.11827	1140.87000	-0.30600
127.39029	1140.16000	-0.30100
127.65830	1140.42000	-0.29700
127.93032	1139.82000	-0.29300
128.19833	1140.31000	-0.28900
128.47035	1140.04000	-0.28400
128.73936	1140.48000	-0.28100
129.01038	1139.96000	-0.27600
129.27839	1140.61000	-0.27200
129.55041	1140.23000	-0.27000
129.81843	1140.78000	-0.26500
130.09044	1140.56000	-0.26400
130.35846	1141.11000	-0.25700
130.63147	1140.59000	-0.25400
130.89849	1140.93000	-0.25300
131.16950	1140.47000	-0.24600
131.43852	1140.81000	-0.24700
131.70953	1140.39000	-0.24300
131.97855	1140.89000	-0.23700
132.25057	1140.39000	-0.23400
132.51758	1140.91000	-0.22900
132.78960	1140.68000	-0.22900
133.05961	1141.36000	-0.22300
133.33763	1141.82000	-0.21600
133.61064	1141.56000	-0.21700
133.87766	1141.94000	-0.20900
134.14967	1141.53000	-0.21000
134.41769	1141.86000	-0.20100
134.69070	1141.35000	-0.19900
134.95772	1141.87000	-0.19700
135.23174	1141.43000	-0.19200
135.49775	1141.86000	-0.19100
135.76977	1141.24000	-0.18700
136.03778	1141.79000	-0.18300
136.30980	1141.60000	-0.18000
136.57781	1142.22000	-0.17200
136.85083	1141.82000	-0.16800
137.11784	1142.26000	-0.16500
137.39186	1142.09000	-0.16200
137.65787	1142.67000	-0.15700
137.92989	1142.49000	-0.15400
138.19990	1143.08000	-0.15100
138.47992	1143.47000	-0.14700
138.75794	1143.82000	-0.14200
139.03095	1143.33000	-0.13800
139.29797	1143.75000	-0.13500
139.57198	1143.31000	-0.13400
139.83800	1143.60000	-0.12800
140.11101	1143.35000	-0.12500
140.37903	1143.73000	-0.12100
140.65104	1143.49000	-0.11500
140.91806	1143.79000	-0.11000
141.19008	1143.31000	-0.10900
141.45809	1143.77000	-0.10700
141.73011	1143.54000	-0.10100
141.99812	1144.02000	-0.09900
142.27014	1143.54000	-0.09300
142.53815	1143.99000	-0.09100
142.81017	1143.65000	-0.08400
143.07818	1144.13000	-0.08300
143.34920	1143.75000	-0.07600
143.61621	1144.28000	-0.07100
143.89023	1143.76000	-0.07000
144.15825	1144.32000	-0.06800
144.42926	1144.06000	-0.06800
144.69828	1144.45000	-0.05600
144.97029	1144.07000	-0.05800
145.23831	1144.53000	-0.05500
145.51032	1144.17000	-0.05000
145.77834	1144.45000	-0.04500
146.04935	1144.02000	-0.04500
146.31837	1144.39000	-0.03500
146.58939	1144.18000	-0.03400
146.85840	1144.89000	-0.02900
147.13042	1144.76000	-0.02600
147.39743	1145.07000	-0.02100
147.67045	1145.04000	-0.01700
147.93746	1145.57000	-0.01700
148.21048	1145.56000	-0.01400
148.47749	1146.20000	-0.00500
148.74951	1146.00000	-0.00100
149.01752	1146.41000	0.00100
149.28954	1145.89000	0.00600
149.55955	1146.18000	0.00600
149.83757	1146.45000	0.01500
150.10959	1146.14000	0.01200
150.37760	1146.38000	0.02100
150.64962	1145.66000	0.02500
150.91763	1145.77000	0.02700
151.18965	1145.20000	0.03100
151.45766	1145.61000	0.03600
151.73068	1145.32000	0.03800
151.99769	1145.65000	0.04000
152.27171	1145.25000	0.04500
152.53772	1145.75000	0.04800
152.81074	1145.74000	0.05500
153.07976	1146.22000	0.05500
153.35777	1146.66000	0.06000
153.63079	1146.12000	0.06300
153.89780	1146.51000	0.06800
154.17082	1146.25000	0.07000
154.43783	1146.83000	0.07300
154.71085	1146.50000	0.08000
154.97786	1147.15000	0.08300
155.25088	1146.31000	0.09000
155.51790	1146.72000	0.09400
155.79091	1146.15000	0.09500
156.05793	1146.62000	0.09600
156.33094	1147.50000	0.10100
156.59796	1147.11000	0.10400
156.86997	1145.80000	0.11400
157.13799	1146.00000	0.11700
157.41100	1145.96000	0.11700
157.67802	1146.44000	0.11800
157.95103	1146.57000	0.12600
158.21805	1146.87000	0.12800
158.49007	1146.53000	0.13400
158.75808	1146.66000	0.13400
159.03010	1145.86000	0.13800
159.29911	1146.15000	0.14300
159.57913	1146.47000	0.14700
159.85914	1146.76000	0.15000
160.13916	1146.97000	0.15200
160.41818	1147.14000	0.16000
160.69019	1146.71000	0.16400
160.95821	1146.83000	0.16600
161.23122	1146.38000	0.17100
161.49824	1146.78000	0.17600
161.77125	1146.21000	0.18100
162.03927	1146.58000	0.18600
162.31828	1146.67000	0.18600
162.59130	1145.76000	0.19000
162.85732	1146.03000	0.19200
163.13133	1145.39000	0.19700
163.39735	1145.64000	0.20100
163.67136	1144.94000	0.20400
163.93738	1145.34000	0.20700
164.21139	1144.98000	0.21200
164.47741	1145.48000	0.21300
164.75142	1145.37000	0.21700
165.01744	1145.91000	0.22500
165.29045	1145.58000	0.23000
165.55747	1146.17000	0.23000
165.83148	1145.96000	0.23300
166.09750	1146.40000	0.23800
166.37152	1146.07000	0.23900
166.63853	1146.44000	0.24300
166.91155	1145.83000	0.24800
167.17756	1146.12000	0.24900
167.45158	1145.62000	0.25700
167.71759	1146.02000	0.26000
167.99161	1145.59000	0.26600
168.25762	1145.95000	0.26700
168.53164	1145.68000	0.26900
168.79866	1146.01000	0.27500
169.07067	1145.48000	0.27700
169.33869	1145.59000	0.28200
169.61170	1144.92000	0.28900
169.87772	1145.16000	0.29000
170.15173	1144.64000	0.29500
170.41875	1144.79000	0.29900
170.69876	1145.07000	0.30200
170.97078	1144.42000	0.30400
171.23779	1144.73000	0.31000
171.51081	1144.31000	0.30800
171.77783	1144.73000	0.31700
172.05084	1144.32000	0.31900
172.31786	1144.63000	0.32700
172.59087	1144.19000	0.32600
172.85889	1144.52000	0.33300
173.13790	1144.69000	0.33500
173.41192	1144.26000	0.34100
173.67893	1144.28000	0.34600
173.95795	1144.39000	0.34800
174.23197	1143.82000	0.35300
174.49698	1143.89000	0.35400
174.77100	1143.38000	0.35600
175.03801	1143.54000	0.36200
175.31003	1143.18000	0.36400
175.57804	1143.50000	0.36700
175.85106	1143.26000	0.37200
176.11907	1143.43000	0.37600
176.39709	1143.56000	0.38100
176.67111	1143.14000	0.38200
176.93712	1143.26000	0.39000
177.21114	1142.88000	0.39100
177.47715	1143.07000	0.39500
177.75117	1142.47000	0.39800
178.01718	1142.55000	0.40100
178.29020	1142.03000	0.40900
178.55721	1142.27000	0.41300
