I [mA]	0.100000
H [kOe]	20.081000
Time [s]	V_xx [mV]	V_xy [mV]
0.00000	1150.88000	0.03100
0.28002	1149.08000	0.03000
0.55103	1147.20000	0.03100
1.03406	1143.45000	0.02900
1.30107	1143.73000	0.03100
1.58109	1144.46000	0.02700
1.86111	1145.21000	0.03200
2.14112	1143.65000	0.03000
2.42114	1142.07000	0.02800
2.70115	1141.62000	0.03000
2.98117	1142.07000	0.03000
3.26119	1142.71000	0.02600
3.54120	1143.15000	0.02600
3.82122	1143.45000	0.02800
4.10124	1143.56000	0.02600
4.38125	1143.51000	0.02700
4.66127	1143.54000	0.02500
4.94128	1143.55000	0.03000
5.22130	1143.48000	0.02600
5.50132	1143.52000	0.02500
5.78033	1142.86000	0.02500
6.05135	1143.03000	0.02700
6.32136	1143.29000	0.02600
6.60138	1143.25000	0.02500
6.88139	1143.17000	0.02500
7.16041	1142.30000	0.02500
7.43143	1142.63000	0.02500
7.70044	1142.31000	0.02600
7.97146	1142.75000	0.02200
8.24147	1143.10000	0.02400
8.52149	1143.31000	0.02500
8.80050	1142.71000	0.02700
9.08052	1142.90000	0.02100
9.36054	1143.11000	0.02100
9.64055	1143.42000	0.02200
9.92057	1143.48000	0.02300
10.20058	1143.60000	0.02300
10.48060	1143.75000	0.02400
10.76062	1143.81000	0.02200
11.04063	1143.85000	0.02200
11.32065	1144.03000	0.02100
11.60066	1144.23000	0.02500
11.88068	1144.20000	0.02100
12.16070	1144.04000	0.02300
12.44071	1143.95000	0.02000
12.72073	1143.88000	0.02000
13.00074	1143.94000	0.02100
13.28076	1143.96000	0.02400
13.56078	1143.94000	0.01900
13.84079	1143.94000	0.01900
14.12081	1143.96000	0.01800
14.40082	1143.93000	0.01500
14.68084	1143.93000	0.02100
14.96086	1143.95000	0.01800
15.24087	1143.90000	0.01700
15.52089	1144.05000	0.01900
15.80090	1144.04000	0.01800
16.08092	1144.02000	0.01500
16.36094	1144.02000	0.01900
16.64095	1144.17000	0.01600
16.92097	1144.25000	0.01500
17.20098	1144.28000	0.01600
17.48100	1144.18000	0.01200
17.76102	1143.97000	0.01800
18.04103	1143.98000	0.01800
18.32105	1143.91000	0.01900
18.60106	1144.05000	0.01600
18.88108	1144.15000	0.01700
19.16010	1144.20000	0.01700
19.43111	1144.38000	0.01700
19.70113	1144.57000	0.01400
19.98114	1144.58000	0.01600
20.26116	1144.76000	0.01200
20.54118	1144.81000	0.01100
20.82119	1144.90000	0.01500
21.10021	1144.43000	0.01300
21.37122	1144.92000	0.01200
21.64024	1144.30000	0.01400
21.91125	1144.69000	0.00800
22.18127	1144.96000	0.01400
22.46028	1144.39000	0.00900
22.73130	1144.98000	0.01200
23.00132	1145.35000	0.01200
23.28133	1145.55000	0.01400
23.56035	1144.75000	0.01200
23.84136	1144.98000	0.01100
24.12138	1145.30000	0.00900
24.40040	1145.61000	0.01100
24.68041	1145.77000	0.00900
24.96043	1145.91000	0.01100
25.24044	1146.07000	0.01000
25.52046	1146.12000	0.00800
25.80048	1146.26000	0.01100
26.08049	1146.20000	0.00900
26.36051	1146.17000	0.00700
26.64052	1146.06000	0.01200
26.92054	1146.14000	0.00800
27.20056	1146.34000	0.01000
27.48057	1146.52000	0.01000
27.76059	1146.64000	0.00900
28.04060	1146.68000	0.01000
28.32062	1146.83000	0.00900
28.60064	1146.98000	0.00600
28.88065	1147.34000	0.00600
29.16067	1147.46000	0.00600
29.44068	1147.74000	0.00800
29.72070	1147.86000	0.00700
30.00072	1147.80000	0.01000
30.28073	1147.91000	0.00400
30.56075	1147.98000	0.00300
30.84076	1148.05000	0.00400
31.12078	1148.04000	0.00700
31.40080	1147.97000	0.00800
31.68081	1147.94000	0.00400
31.96083	1147.97000	0.00600
32.24084	1147.73000	0.00200
32.52086	1147.66000	0.00600
32.80088	1147.53000	0.00500
33.08089	1147.37000	0.00600
33.36091	1147.27000	0.00800
33.64092	1147.21000	0.00400
33.92094	1147.06000	0.00400
34.20096	1146.96000	0.00200
34.48097	1146.93000	0.00500
34.76099	1146.94000	0.00200
35.04100	1147.03000	0.00200
35.32102	1147.09000	0.00300
35.60104	1147.07000	0.00300
35.88105	1146.97000	0.00300
36.16107	1146.84000	0.00200
36.44108	1146.59000	0.00400
36.72110	1146.30000	0.00500
37.00112	1146.27000	0.00200
37.28113	1146.02000	0.00200
37.56115	1145.97000	0.00300
37.84116	1145.79000	-0.00100
38.12018	1145.55000	0.00200
38.40020	1145.31000	0.00000
38.68021	1145.15000	0.00100
38.96023	1144.91000	0.00200
39.24024	1144.69000	0.00000
39.52026	1144.34000	0.00100
39.80028	1144.03000	0.00000
40.08029	1143.92000	0.00000
40.36031	1143.96000	0.00000
40.64032	1143.68000	0.00200
40.92034	1143.53000	0.00200
41.20036	1143.15000	-0.00100
41.48037	1143.01000	0.00200
41.76039	1142.82000	-0.00300
42.04040	1142.58000	0.00100
42.32042	1142.45000	0.00100
42.60044	1142.24000	-0.00100
42.88045	1141.93000	-0.00200
43.16047	1141.76000	0.00000
43.44049	1141.63000	-0.00100
43.72050	1141.52000	-0.00100
44.00052	1141.55000	-0.00100
44.28053	1141.55000	0.00100
44.56055	1141.79000	-0.00300
44.84056	1141.98000	0.00100
45.12058	1142.07000	-0.00200
45.40060	1142.09000	-0.00200
45.68061	1142.24000	0.00000
45.96063	1142.28000	-0.00300
46.24064	1142.41000	0.00100
46.52066	1142.51000	-0.00500
46.80068	1142.55000	-0.00400
47.08069	1142.87000	0.00000
47.36071	1143.09000	-0.00100
47.64073	1143.37000	0.00000
47.92074	1143.44000	-0.00100
48.20076	1143.61000	-0.00500
48.48077	1143.68000	-0.00500
48.76079	1143.95000	-0.00400
49.04081	1144.10000	-0.00400
49.32082	1144.07000	-0.00400
49.60084	1144.21000	-0.00500
49.87985	1144.31000	-0.00300
50.15087	1144.40000	0.00000
50.42088	1144.58000	-0.00500
50.70090	1144.84000	-0.00200
50.98092	1144.96000	-0.00300
51.26093	1145.08000	-0.00600
51.54095	1145.20000	-0.00300
51.81996	1144.63000	-0.00400
52.09998	1144.79000	-0.00500
52.38000	1144.98000	-0.00300
52.66001	1145.11000	-0.00200
52.94003	1145.38000	-0.00400
53.22004	1145.57000	-0.00400
53.50006	1145.65000	-0.00400
53.78008	1145.72000	-0.00500
54.06009	1145.75000	-0.00300
54.34011	1145.98000	-0.00700
54.62012	1145.84000	-0.00600
54.90014	1145.74000	-0.00600
55.18016	1145.64000	-0.00500
55.46017	1145.55000	-0.00400
55.74019	1145.67000	-0.00700
56.02021	1145.73000	-0.00700
56.30022	1145.83000	-0.00600
56.58024	1145.69000	-0.00600
56.86025	1145.68000	-0.00700
57.14027	1145.94000	-0.00600
57.42028	1146.08000	-0.00700
57.70030	1146.35000	-0.00600
57.98032	1146.46000	-0.00900
58.26033	1146.68000	-0.00700
58.54035	1146.81000	-0.00600
58.82036	1146.89000	-0.00600
59.10038	1146.92000	-0.00500
59.38040	1147.03000	-0.00700
59.66041	1147.00000	-0.00900
59.94043	1146.86000	-0.01000
60.22044	1146.81000	-0.00900
60.50046	1146.82000	-0.00500
60.78048	1146.89000	-0.00700
61.06049	1147.06000	-0.00800
61.34051	1147.19000	-0.00700
61.62052	1147.29000	-0.00900
61.90054	1147.19000	-0.00900
62.18056	1147.24000	-0.00800
62.46057	1147.32000	-0.00700
62.74059	1147.40000	-0.00700
63.02060	1147.56000	-0.00900
63.29962	1147.59000	-0.01000
63.57064	1147.82000	-0.00600
63.84065	1147.80000	-0.00900
64.12067	1147.80000	-0.00800
64.40068	1147.93000	-0.00500
64.68070	1148.04000	-0.00700
64.96072	1148.04000	-0.00700
65.24073	1148.09000	-0.00800
65.52075	1148.20000	-0.00600
65.79976	1147.43000	-0.00900
66.07978	1147.68000	-0.00700
66.35980	1147.99000	-0.01100
66.63981	1148.08000	-0.01100
66.91983	1148.14000	-0.01300
67.19984	1148.23000	-0.00700
67.47986	1148.29000	-0.01100
67.75988	1148.44000	-0.00800
68.03989	1148.45000	-0.00800
68.31991	1148.26000	-0.00700
68.59992	1147.93000	-0.01000
68.87994	1147.50000	-0.00800
69.15996	1147.13000	-0.00900
69.43997	1146.93000	-0.01000
69.71999	1147.11000	-0.01100
70.00000	1146.60000	-0.01100
70.28002	1146.31000	-0.01300
70.56004	1148.02000	-0.00900
70.84005	1147.18000	-0.00700
71.12007	1146.87000	-0.01100
71.40008	1146.49000	-0.01000
71.68010	1146.05000	-0.01100
71.96012	1145.87000	-0.01000
72.24013	1145.76000	-0.01000
72.52015	1145.68000	-0.01000
72.80016	1145.61000	-0.01100
73.08018	1145.64000	-0.00700
73.36020	1145.41000	-0.00900
73.64021	1145.31000	-0.00900
73.92023	1145.13000	-0.01000
74.20024	1144.97000	-0.01500
74.48026	1144.73000	-0.00700
74.76028	1144.49000	-0.01300
75.04029	1144.48000	-0.00700
75.32031	1144.36000	-0.01200
75.60032	1144.29000	-0.01100
75.88034	1144.30000	-0.01300
76.16036	1144.25000	-0.01000
76.44037	1144.18000	-0.00900
76.72039	1144.09000	-0.01000
77.00040	1144.05000	-0.00900
77.28042	1143.87000	-0.00900
77.56044	1143.48000	-0.00600
77.84045	1143.17000	-0.01300
78.11947	1143.00000	-0.01200
78.40048	1142.85000	-0.00800
78.68050	1142.80000	-0.01000
78.95952	1142.85000	-0.01100
79.23953	1142.66000	-0.00800
79.51955	1142.56000	-0.01200
79.79956	1142.55000	-0.01000
80.07958	1142.52000	-0.00800
80.35960	1142.29000	-0.01100
80.63961	1142.07000	-0.01200
80.91963	1142.02000	-0.01000
81.19964	1142.06000	-0.01200
81.47966	1142.11000	-0.00900
81.75968	1142.03000	-0.00900
82.03969	1142.07000	-0.00800
82.31971	1142.18000	-0.01100
82.59972	1142.36000	-0.00800
82.87974	1142.55000	-0.01000
83.15976	1142.83000	-0.00900
83.43977	1143.12000	-0.00800
83.71979	1143.31000	-0.00900
83.99980	1143.28000	-0.01300
84.27982	1143.39000	-0.00700
84.55984	1143.45000	-0.01000
84.83985	1143.39000	-0.01100
85.11987	1143.34000	-0.01000
85.39988	1143.20000	-0.01100
85.67990	1143.19000	-0.00900
85.95992	1143.25000	-0.01200
86.23993	1143.62000	-0.00900
86.51995	1143.78000	-0.00900
86.79996	1144.13000	-0.00900
87.07998	1144.26000	-0.00800
87.36000	1144.34000	-0.01000
87.64001	1144.43000	-0.01100
87.92003	1144.49000	-0.00600
88.20004	1144.80000	-0.00800
88.48006	1144.82000	-0.01100
88.76008	1144.98000	-0.01100
89.04009	1144.99000	-0.00500
89.32011	1145.12000	-0.00900
89.60012	1145.30000	-0.01000
89.88014	1145.41000	-0.01000
90.16016	1145.55000	-0.00900
90.44017	1145.69000	-0.00900
90.72019	1145.75000	-0.01100
90.99920	1145.63000	-0.00900
91.27022	1145.65000	-0.01200
91.53924	1144.93000	-0.00900
91.81025	1145.27000	-0.00900
92.08027	1145.57000	-0.00600
92.36028	1145.72000	-0.01100
92.63930	1145.27000	-0.00900
92.91932	1145.47000	-0.01000
93.19933	1145.64000	-0.00800
93.47935	1145.78000	-0.00900
93.75936	1146.24000	-0.00600
94.03938	1146.42000	-0.00800
94.31940	1146.61000	-0.00400
94.59941	1146.73000	-0.00600
94.87943	1146.76000	-0.00700
95.15944	1146.70000	-0.00900
95.43946	1146.62000	-0.00700
95.71948	1146.53000	-0.00800
95.99949	1146.61000	-0.00700
96.27951	1146.66000	-0.01000
96.55952	1146.79000	-0.00600
96.83954	1146.97000	-0.00600
97.11955	1147.18000	-0.00600
97.39957	1147.30000	-0.00700
97.67959	1147.21000	-0.00800
97.95960	1147.33000	-0.00800
98.23962	1147.43000	-0.00800
98.51964	1147.55000	-0.00700
98.79965	1147.67000	-0.00900
99.07967	1147.68000	-0.00600
99.35968	1147.66000	-0.00700
99.63970	1147.63000	-0.00900
99.91972	1147.68000	-0.00500
100.19973	1147.57000	-0.00600
100.47975	1147.57000	-0.00600
100.75976	1147.75000	-0.00800
101.03978	1147.66000	-0.00400
101.31980	1147.51000	-0.00400
101.59981	1147.59000	-0.00800
101.87983	1147.63000	-0.00400
102.15984	1147.58000	-0.00500
102.43986	1147.70000	-0.00600
102.71988	1147.66000	-0.00600
102.99989	1147.74000	-0.00500
103.27991	1147.81000	-0.00500
103.55992	1147.84000	-0.00500
103.83994	1147.89000	-0.00600
104.11996	1147.98000	-0.00800
104.39997	1148.08000	-0.00400
104.67899	1148.00000	-0.00300
104.96000	1147.55000	-0.00600
105.22102	1147.46000	-0.00400
105.50003	1147.37000	-0.00400
105.78005	1147.40000	-0.00200
106.06007	1147.40000	-0.00500
106.33908	1146.45000	-0.00400
106.61910	1146.51000	-0.00200
106.89911	1146.43000	-0.00700
107.17913	1146.55000	-0.00100
107.45915	1146.60000	-0.00300
107.73916	1146.63000	-0.00400
108.01918	1146.52000	-0.00300
108.29919	1146.46000	-0.00200
108.57921	1146.50000	0.00100
108.85923	1146.46000	-0.00200
109.13924	1146.41000	0.00200
109.41926	1146.40000	-0.00100
109.69927	1146.34000	-0.00200
109.97929	1146.08000	-0.00400
110.25931	1146.00000	-0.00500
110.53932	1146.00000	-0.00400
110.81934	1145.94000	-0.00500
111.09935	1145.86000	-0.00400
111.37937	1145.47000	-0.00500
111.65939	1145.04000	0.00200
111.93940	1144.62000	-0.00300
112.21942	1144.30000	0.00000
112.49943	1144.13000	-0.00200
112.77945	1143.89000	0.00100
113.05947	1143.70000	-0.00100
113.33948	1143.61000	-0.00200
113.61950	1143.59000	-0.00300
113.89952	1143.53000	0.00000
114.17953	1143.38000	-0.00100
114.45955	1143.22000	-0.00100
114.73956	1143.00000	-0.00100
115.01958	1142.95000	-0.00100
115.29960	1142.74000	0.00200
115.57961	1142.60000	-0.00500
115.85963	1142.71000	-0.00300
116.13864	1142.75000	0.00000
116.40066	1142.78000	0.00000
116.67967	1142.76000	-0.00100
116.95969	1142.86000	0.00000
117.23971	1143.05000	0.00200
117.51972	1143.13000	0.00200
117.79874	1142.49000	0.00200
118.06075	1142.75000	0.00000
118.33977	1143.01000	0.00100
118.61978	1143.32000	0.00200
118.89880	1143.15000	0.00000
119.16082	1143.73000	0.00000
119.43983	1144.28000	0.00300
119.71885	1144.18000	0.00000
119.99886	1144.55000	0.00100
120.27988	1144.90000	0.00300
120.55990	1145.18000	0.00100
120.83891	1145.30000	0.00300
121.11993	1145.63000	0.00000
121.39994	1145.80000	0.00400
121.67896	1145.85000	0.00400
121.95898	1145.91000	0.00500
122.23899	1145.97000	0.00200
122.51901	1146.10000	0.00200
122.79902	1146.06000	0.00000
123.07904	1146.01000	0.00200
123.35906	1145.97000	0.00400
123.63907	1146.07000	0.00300
123.91909	1146.22000	0.00000
124.19910	1146.59000	0.00200
124.47912	1146.86000	0.00500
124.75914	1147.16000	0.00200
125.03915	1147.29000	0.00500
125.31917	1147.15000	0.00300
125.59818	1147.26000	0.00400
125.86120	1147.35000	0.00200
126.13921	1146.84000	0.00400
126.41923	1147.12000	0.00700
126.69925	1147.30000	0.00800
126.97926	1147.35000	0.00600
127.25928	1147.44000	0.00800
127.53930	1147.45000	0.00600
127.81931	1147.27000	0.00300
128.09933	1147.19000	0.00400
128.37934	1147.27000	0.00700
128.65936	1147.25000	0.00900
128.93938	1147.22000	0.00500
129.21939	1147.40000	0.00700
129.49941	1147.41000	0.00700
129.77942	1147.46000	0.01000
130.05944	1147.41000	0.00900
130.33946	1147.49000	0.00600
130.61947	1147.46000	0.00500
130.89949	1147.56000	0.00400
131.17950	1147.73000	0.00800
131.45952	1147.95000	0.00800
131.73954	1148.17000	0.01100
132.01955	1148.29000	0.00800
132.29957	1148.52000	0.00900
132.57958	1148.62000	0.00700
132.85960	1148.54000	0.01000
133.13962	1148.31000	0.00800
133.41963	1148.26000	0.00800
133.69965	1148.15000	0.00800
133.97966	1148.09000	0.01100
134.25968	1148.00000	0.01000
134.53970	1147.93000	0.00900
134.81971	1147.63000	0.01200
135.09973	1147.31000	0.01400
135.37874	1147.10000	0.01400
135.65876	1147.02000	0.01200
135.93878	1146.99000	0.01200
136.21879	1146.89000	0.00900
136.49881	1146.83000	0.01100
136.77882	1146.62000	0.00800
137.05884	1146.51000	0.01100
137.33886	1146.28000	0.01300
137.61887	1146.37000	0.01100
137.89889	1146.22000	0.01100
138.17890	1146.13000	0.01300
138.45892	1146.07000	0.01000
138.73894	1146.11000	0.01300
139.01895	1146.07000	0.01300
139.29897	1146.05000	0.01200
139.57898	1146.03000	0.01100
139.85900	1146.07000	0.01200
140.13902	1146.03000	0.01300
140.41903	1145.92000	0.01300
140.69905	1145.73000	0.01400
140.97906	1145.58000	0.01500
141.25908	1145.31000	0.01500
141.53910	1145.27000	0.01600
141.81911	1145.11000	0.01700
142.09913	1144.83000	0.01400
142.37914	1144.64000	0.01600
142.65916	1144.34000	0.01600
142.93918	1144.13000	0.01400
143.21919	1143.88000	0.01400
143.49921	1143.73000	0.01400
143.77922	1143.46000	0.01400
144.05924	1143.21000	0.01600
144.33926	1142.96000	0.01800
144.61927	1142.84000	0.01700
144.89929	1142.77000	0.01600
145.17930	1142.78000	0.02000
145.45932	1142.62000	0.01700
145.73934	1142.24000	0.02000
146.01935	1142.15000	0.01500
146.29837	1142.17000	0.01500
146.56138	1142.30000	0.02100
146.83940	1142.65000	0.02100
147.11942	1142.78000	0.02100
147.39943	1142.89000	0.02000
147.67945	1142.90000	0.02000
147.95946	1142.98000	0.02200
148.23948	1143.23000	0.01900
148.51950	1143.40000	0.02200
148.79951	1143.62000	0.01900
149.07853	1143.08000	0.01900
149.35854	1143.45000	0.02000
149.63856	1143.90000	0.02200
149.91858	1144.16000	0.02200
150.19859	1144.39000	0.02300
150.47861	1144.61000	0.02000
150.75862	1145.06000	0.02000
151.03864	1145.55000	0.02100
151.31866	1145.70000	0.02400
151.59867	1145.91000	0.02200
151.87869	1145.92000	0.02200
152.15870	1146.15000	0.02200
152.43872	1146.43000	0.02000
152.71874	1146.66000	0.02500
152.99875	1146.69000	0.01900
153.27877	1146.87000	0.02000
153.55878	1147.09000	0.02500
153.83880	1147.18000	0.02200
154.11882	1147.29000	0.02100
154.39883	1147.38000	0.02300
154.67885	1147.25000	0.02500
154.95886	1147.24000	0.02600
155.23888	1147.20000	0.02500
155.51890	1146.96000	0.02600
155.79891	1146.90000	0.02500
156.07893	1146.82000	0.02400
156.35894	1146.83000	0.02500
156.63896	1146.64000	0.02200
156.91898	1146.63000	0.02500
157.19899	1146.76000	0.02500
157.47901	1147.08000	0.02500
157.75902	1147.14000	0.02600
158.03904	1147.04000	0.02600
158.31906	1147.20000	0.02800
158.59907	1147.20000	0.02800
158.87909	1147.21000	0.02800
159.15910	1147.16000	0.02700
159.43912	1147.31000	0.02600
159.71914	1147.56000	0.02500
159.99915	1147.77000	0.03100
160.27917	1147.82000	0.02700
160.55818	1147.83000	0.02600
160.82120	1147.98000	0.03200
161.09921	1148.13000	0.02900
161.37923	1148.16000	0.02800
161.65925	1148.15000	0.02600
161.93926	1148.01000	0.02700
162.21928	1147.97000	0.03200
162.49929	1147.96000	0.02800
162.77831	1147.20000	0.03100
163.05833	1147.55000	0.02800
163.33834	1147.81000	0.02800
163.61836	1148.04000	0.03000
163.89837	1148.15000	0.03000
164.17839	1148.11000	0.02700
164.45841	1147.97000	0.03100
164.73842	1147.92000	0.02900
165.01844	1148.01000	0.02800
165.29846	1148.00000	0.03100
165.57847	1147.97000	0.02800
165.85849	1147.86000	0.03100
166.13850	1147.94000	0.03100
166.41852	1148.04000	0.03000
166.69853	1148.25000	0.03100
166.97855	1148.23000	0.03200
167.25857	1148.16000	0.03000
167.53858	1148.12000	0.03200
167.81860	1148.03000	0.03100
168.09862	1148.10000	0.03300
168.37863	1147.93000	0.03300
168.65865	1147.96000	0.03300
168.93866	1148.13000	0.03300
169.21868	1148.35000	0.03000
169.49870	1148.56000	0.03400
169.77871	1148.55000	0.03500
170.05873	1148.66000	0.03400
170.33874	1148.75000	0.03200
170.61876	1148.66000	0.03300
170.89878	1148.57000	0.03600
171.17879	1148.41000	0.03300
171.45881	1148.25000	0.03500
171.73882	1148.05000	0.03400
172.01884	1148.01000	0.03200
172.29886	1147.97000	0.03500
172.57887	1147.93000	0.03500
172.85889	1147.76000	0.03300
173.13890	1147.70000	0.03600
173.41892	1147.71000	0.03500
173.69894	1147.67000	0.03700
173.97895	1147.76000	0.03800
174.25897	1147.77000	0.03800
174.53898	1147.86000	0.04000
174.81900	1147.75000	0.03500
175.09902	1147.85000	0.03700
175.37903	1147.80000	0.03900
175.65905	1147.79000	0.03800
175.93906	1147.72000	0.04100
176.21808	1147.50000	0.03900
176.49810	1147.39000	0.03800
176.77811	1147.24000	0.03800
177.05813	1147.09000	0.03700
177.33814	1146.96000	0.04000
177.61816	1146.84000	0.03700
177.89818	1146.79000	0.04000
178.17819	1146.69000	0.04000
178.45821	1146.80000	0.03900
178.73822	1146.76000	0.03800
179.01824	1146.76000	0.03900
179.29825	1146.69000	0.04000
179.57827	1146.57000	0.03900
179.85829	1146.64000	0.04000
180.13830	1146.55000	0.04200
180.41832	1146.36000	0.04200
180.69834	1146.16000	0.04500
180.97835	1146.09000	0.04200
181.25837	1145.96000	0.04300
181.53838	1145.97000	0.03700
181.81840	1146.20000	0.04400
182.09842	1146.11000	0.03900
182.37843	1146.08000	0.04100
182.65845	1145.89000	0.04300
182.93846	1145.69000	0.04200
183.21848	1145.64000	0.04000
183.49850	1145.54000	0.04000
183.77851	1145.42000	0.04200
184.05853	1145.35000	0.04300
184.33854	1145.22000	0.04300
184.61856	1145.15000	0.04200
184.89858	1145.10000	0.04500
185.17859	1144.89000	0.04400
185.45861	1144.63000	0.04400
185.73862	1144.37000	0.04100
186.01864	1144.22000	0.04600
186.29866	1144.32000	0.04200
186.57867	1144.30000	0.04400
186.85869	1144.24000	0.04500
