I [mA]	0.100000
H [kOe]	20.097000
Time [s]	V_xx [mV]	V_xy [mV]
0.00000	1147.52000	-1.82200
0.28102	1145.74000	-1.82200
0.54503	1143.96000	-1.82100
0.82105	1143.40000	-1.82100
1.29807	1141.26000	-1.82300
1.56509	1140.45000	-1.82100
1.84110	1140.81000	-1.82200
2.10512	1140.89000	-1.82300
2.38114	1141.05000	-1.82400
2.64415	1141.24000	-1.82000
2.92217	1142.07000	-1.82300
3.20018	1141.91000	-1.82100
3.46520	1141.38000	-1.82100
3.74121	1142.89000	-1.82200
4.02123	1142.51000	-1.81900
4.29925	1142.69000	-1.82000
4.56526	1142.37000	-1.81900
4.84128	1143.05000	-1.82000
5.11929	1143.08000	-1.82200
5.38531	1142.47000	-1.82100
5.66132	1143.04000	-1.82000
5.93934	1143.30000	-1.81700
6.20536	1142.69000	-1.81800
6.48137	1143.23000	-1.82000
6.76139	1143.60000	-1.81700
7.03940	1143.44000	-1.81600
7.30542	1142.87000	-1.81800
7.58143	1143.16000	-1.81700
7.85945	1143.33000	-1.81500
8.12546	1142.60000	-1.81500
8.40148	1143.24000	-1.81200
8.67950	1143.67000	-1.81100
8.94551	1143.18000	-1.80800
9.22153	1143.70000	-1.80700
9.49954	1144.06000	-1.81000
9.76556	1143.50000	-1.80600
10.04157	1144.16000	-1.80600
10.31959	1144.64000	-1.80500
10.58561	1144.07000	-1.80200
10.86162	1144.61000	-1.80400
11.13964	1145.05000	-1.80200
11.40565	1144.62000	-1.80000
11.68067	1145.00000	-1.79700
11.94368	1144.59000	-1.79900
12.21970	1145.12000	-1.79800
12.48471	1144.44000	-1.79800
12.75973	1144.89000	-1.79500
13.02474	1144.28000	-1.79200
13.30176	1144.91000	-1.79300
13.57978	1145.22000	-1.78700
13.84479	1144.53000	-1.78700
14.12081	1145.04000	-1.78700
14.38382	1144.67000	-1.78600
14.65984	1145.39000	-1.78400
14.92485	1145.13000	-1.78000
15.20087	1145.95000	-1.78000
15.46488	1145.56000	-1.77600
15.74090	1146.02000	-1.77500
16.00391	1145.70000	-1.77300
16.27993	1146.32000	-1.77500
16.54495	1145.80000	-1.76800
16.82096	1146.31000	-1.76800
17.08398	1145.74000	-1.76600
17.34899	1146.18000	-1.76300
17.62401	1145.74000	-1.76100
17.89002	1146.33000	-1.76100
18.16304	1146.02000	-1.75900
18.42905	1146.62000	-1.75800
18.70307	1146.43000	-1.75300
18.96908	1146.87000	-1.75200
19.24310	1146.49000	-1.75000
19.50912	1146.85000	-1.75000
19.78313	1146.35000	-1.74800
20.04915	1146.73000	-1.74500
20.32316	1146.31000	-1.74200
20.58918	1146.56000	-1.73800
20.86319	1146.05000	-1.73700
21.12921	1146.27000	-1.73000
21.40322	1145.75000	-1.73200
21.66924	1146.05000	-1.72900
21.94325	1145.81000	-1.72700
22.20927	1146.33000	-1.72500
22.48329	1146.00000	-1.72100
22.74930	1146.30000	-1.72000
23.02332	1145.70000	-1.71400
23.28933	1146.00000	-1.71400
23.56335	1145.62000	-1.71400
23.82936	1145.86000	-1.71300
24.10338	1145.40000	-1.70600
24.36939	1145.68000	-1.70500
24.64341	1145.34000	-1.70200
24.90942	1145.55000	-1.69700
25.18344	1145.13000	-1.69700
25.44945	1145.23000	-1.69700
25.72347	1144.61000	-1.69100
25.98949	1144.84000	-1.68600
26.26350	1144.66000	-1.68400
26.52952	1145.02000	-1.68300
26.80353	1144.58000	-1.68100
27.06955	1144.65000	-1.67900
27.34356	1143.84000	-1.67200
27.60958	1144.04000	-1.67500
27.88359	1143.81000	-1.67000
28.14961	1144.22000	-1.66700
28.42363	1143.80000	-1.66400
28.68964	1143.93000	-1.66000
28.96366	1143.19000	-1.65500
29.22967	1143.40000	-1.65500
29.50369	1143.12000	-1.65200
29.76970	1143.41000	-1.64800
30.04372	1142.98000	-1.64500
30.30973	1143.22000	-1.64200
30.58375	1142.92000	-1.63800
30.84976	1143.08000	-1.63900
31.12378	1142.54000	-1.63500
31.38979	1142.75000	-1.63200
31.66381	1142.22000	-1.62400
31.92883	1142.49000	-1.62300
32.20384	1142.12000	-1.62200
32.46986	1142.49000	-1.61900
32.74387	1142.13000	-1.61500
33.00989	1142.20000	-1.61300
33.28390	1141.81000	-1.60900
33.55092	1142.24000	-1.60600
33.82894	1142.51000	-1.60400
34.10395	1142.12000	-1.59900
34.37097	1142.31000	-1.59900
34.64898	1142.56000	-1.59400
34.92400	1142.13000	-1.59100
35.18901	1142.36000	-1.58800
35.46403	1141.94000	-1.58300
35.72904	1142.14000	-1.58200
36.00306	1141.66000	-1.57700
36.26907	1142.05000	-1.57100
36.54309	1141.60000	-1.56800
36.80911	1141.91000	-1.56500
37.08312	1141.28000	-1.56400
37.34914	1141.59000	-1.55800
37.62315	1140.86000	-1.55700
37.88917	1141.25000	-1.55000
38.16318	1141.03000	-1.55200
38.42920	1141.61000	-1.54800
38.70321	1141.37000	-1.54300
38.96923	1141.88000	-1.53900
39.24324	1141.22000	-1.53800
39.51126	1141.50000	-1.53500
39.79128	1141.59000	-1.53200
40.06929	1141.95000	-1.52700
40.34331	1141.47000	-1.52200
40.60932	1141.79000	-1.51700
40.88334	1141.13000	-1.51800
41.14935	1141.48000	-1.51500
41.42337	1140.95000	-1.50700
41.68938	1141.45000	-1.50400
41.96340	1141.03000	-1.50400
42.22941	1141.30000	-1.49800
42.50343	1140.75000	-1.49500
42.76945	1141.62000	-1.49100
43.04346	1141.06000	-1.49100
43.30948	1141.54000	-1.48600
43.58349	1140.94000	-1.48400
43.84951	1141.15000	-1.47600
44.12352	1141.27000	-1.47500
44.38954	1141.52000	-1.47000
44.66355	1140.89000	-1.46900
44.92957	1141.82000	-1.46400
45.20359	1141.16000	-1.46100
45.46960	1141.36000	-1.45800
45.74362	1141.60000	-1.45300
46.00963	1142.69000	-1.44900
46.28365	1142.22000	-1.44400
46.54966	1142.30000	-1.44100
46.82368	1142.21000	-1.43600
47.08969	1142.44000	-1.43600
47.36371	1142.21000	-1.43200
47.62972	1142.77000	-1.42900
47.90374	1142.14000	-1.42600
48.16975	1142.31000	-1.42000
48.44377	1141.61000	-1.41800
48.71079	1142.11000	-1.41300
48.98880	1142.48000	-1.41000
49.26382	1141.80000	-1.40500
49.53083	1142.03000	-1.40200
49.80885	1142.25000	-1.39800
50.08386	1141.79000	-1.39700
50.34888	1142.09000	-1.39100
50.62390	1141.69000	-1.39100
50.88891	1142.04000	-1.38200
51.16293	1141.78000	-1.37900
51.43094	1142.18000	-1.37800
51.70896	1142.23000	-1.37400
51.98297	1141.56000	-1.37100
52.24899	1141.91000	-1.36300
52.52500	1141.45000	-1.36300
52.80102	1141.79000	-1.36000
53.06904	1142.22000	-1.35700
53.34305	1141.73000	-1.35100
53.60907	1142.01000	-1.34600
53.88408	1141.54000	-1.34500
54.14910	1141.85000	-1.34200
54.42311	1141.34000	-1.33700
54.69013	1141.59000	-1.33300
54.96314	1140.99000	-1.32900
55.23116	1141.43000	-1.32600
55.50917	1141.76000	-1.32000
55.78319	1140.93000	-1.31900
56.05121	1141.14000	-1.31800
56.32922	1141.56000	-1.31300
56.60324	1140.61000	-1.31100
56.87025	1140.65000	-1.30400
57.14327	1139.82000	-1.30000
57.40828	1140.04000	-1.29400
57.68430	1139.59000	-1.29300
57.94931	1140.10000	-1.29100
58.22433	1139.84000	-1.28300
58.48835	1140.44000	-1.28200
58.76436	1139.96000	-1.27800
59.02938	1140.57000	-1.27100
59.30439	1140.29000	-1.27000
59.56941	1140.79000	-1.26800
59.84442	1140.24000	-1.26100
60.10944	1140.77000	-1.25800
60.38345	1140.41000	-1.25300
60.64847	1140.74000	-1.25200
60.92448	1140.44000	-1.24800
61.18850	1140.81000	-1.24200
61.46251	1140.46000	-1.24200
61.72953	1140.79000	-1.23800
62.00455	1140.46000	-1.23100
62.26956	1140.95000	-1.22600
62.54458	1140.62000	-1.22200
62.80859	1140.94000	-1.22300
63.08461	1140.66000	-1.22000
63.34862	1141.13000	-1.21500
63.62464	1140.83000	-1.21000
63.88865	1141.31000	-1.20800
64.16467	1140.95000	-1.20100
64.42868	1141.26000	-1.19700
64.70470	1140.83000	-1.19600
64.96872	1141.21000	-1.19200
65.24473	1140.56000	-1.18800
65.51075	1140.96000	-1.18600
65.78876	1141.29000	-1.17700
66.06478	1140.87000	-1.17500
66.34079	1141.40000	-1.17600
66.60881	1141.86000	-1.16800
66.88283	1141.46000	-1.16500
67.15084	1141.70000	-1.15900
67.42886	1141.97000	-1.15700
67.70287	1141.45000	-1.15200
67.97089	1141.89000	-1.15300
68.25090	1142.22000	-1.14800
68.52892	1142.62000	-1.14100
68.80294	1142.27000	-1.13800
69.06895	1142.52000	-1.13400
69.34297	1141.81000	-1.13300
69.61098	1142.13000	-1.12900
69.89000	1142.48000	-1.12600
70.16301	1141.84000	-1.12000
70.42903	1142.31000	-1.11500
70.70304	1141.88000	-1.11300
70.96906	1142.43000	-1.10600
71.24407	1142.21000	-1.10400
71.50909	1142.69000	-1.09800
71.78311	1142.23000	-1.09800
72.04912	1142.51000	-1.09200
72.32414	1142.10000	-1.08600
72.59015	1142.38000	-1.08500
72.86917	1142.67000	-1.08400
73.14318	1142.14000	-1.08000
73.41020	1142.69000	-1.07200
73.69022	1142.96000	-1.06700
73.97023	1143.22000	-1.06600
74.25025	1143.28000	-1.06200
74.52926	1143.38000	-1.06000
74.80428	1142.56000	-1.05600
75.06829	1143.00000	-1.05200
75.34231	1142.65000	-1.04900
75.60932	1143.29000	-1.04300
75.88334	1142.95000	-1.03800
76.14836	1143.56000	-1.03600
76.42237	1143.44000	-1.03000
76.68939	1143.91000	-1.02800
76.96440	1143.36000	-1.02000
77.22942	1143.81000	-1.02300
77.50443	1143.25000	-1.01700
77.76845	1143.71000	-1.01400
78.04246	1142.98000	-1.00700
78.30848	1143.30000	-1.00300
78.58449	1142.76000	-0.99800
78.84851	1143.30000	-0.99600
79.12453	1142.95000	-0.99300
79.38854	1143.64000	-0.99100
79.66456	1143.37000	-0.98500
79.92857	1143.79000	-0.98000
80.20259	1143.38000	-0.97700
80.46860	1144.04000	-0.97200
80.74462	1143.87000	-0.97300
81.01063	1144.51000	-0.96700
81.28865	1144.93000	-0.96200
81.56266	1144.60000	-0.96100
81.82868	1145.01000	-0.95600
82.10370	1144.49000	-0.94900
82.36871	1144.92000	-0.94700
82.64373	1144.32000	-0.94500
82.90874	1144.82000	-0.93900
83.18376	1144.10000	-0.93300
83.44877	1144.51000	-0.92900
83.72379	1143.83000	-0.93000
83.98880	1144.47000	-0.92500
84.26382	1144.11000	-0.92100
84.53083	1144.78000	-0.92000
84.80885	1145.31000	-0.91400
85.08387	1145.10000	-0.90800
85.34888	1145.67000	-0.90700
85.62390	1145.52000	-0.89900
85.88891	1146.09000	-0.89700
86.16493	1145.71000	-0.89800
86.44094	1146.15000	-0.89200
86.70996	1146.49000	-0.88500
86.98898	1146.68000	-0.88300
87.26299	1146.11000	-0.88000
87.52901	1146.57000	-0.87900
87.80302	1146.03000	-0.87100
88.07004	1146.35000	-0.87200
88.34905	1146.65000	-0.86300
88.62307	1146.01000	-0.85700
88.88908	1146.23000	-0.85500
89.16410	1145.63000	-0.85200
89.43012	1146.01000	-0.84900
89.71013	1146.22000	-0.84300
89.99015	1146.33000	-0.84200
90.27016	1146.42000	-0.83700
90.54918	1146.48000	-0.82900
90.82219	1145.74000	-0.83000
91.08821	1146.12000	-0.82200
91.36423	1145.65000	-0.82600
91.62824	1146.20000	-0.81900
91.90226	1145.74000	-0.81500
92.17027	1146.11000	-0.81200
92.44829	1146.44000	-0.80500
92.72230	1145.98000	-0.80200
92.99032	1146.49000	-0.79600
93.26833	1146.84000	-0.79300
93.54435	1146.32000	-0.79100
93.81037	1146.67000	-0.78800
94.08838	1147.11000	-0.78300
94.36440	1146.50000	-0.77700
94.62841	1146.78000	-0.77600
94.90243	1146.12000	-0.77100
95.16844	1146.56000	-0.76600
95.44246	1146.23000	-0.76000
95.70847	1146.66000	-0.76000
95.98449	1146.50000	-0.75600
96.24850	1146.91000	-0.75200
96.52352	1146.38000	-0.74900
96.78854	1146.68000	-0.74100
97.06255	1146.18000	-0.73900
97.32957	1146.41000	-0.73600
97.60358	1145.80000	-0.73300
97.86860	1146.10000	-0.73000
98.14461	1145.51000	-0.72800
98.40963	1146.10000	-0.71900
98.68264	1145.88000	-0.72000
98.94866	1146.27000	-0.71300
99.22468	1145.79000	-0.71200
99.48869	1145.88000	-0.70700
99.76371	1145.37000	-0.70100
100.03072	1145.81000	-0.69800
100.30874	1146.08000	-0.69100
100.58375	1145.47000	-0.69200
100.85077	1145.91000	-0.68300
101.12878	1146.31000	-0.68400
101.40380	1145.75000	-0.67900
101.67081	1146.02000	-0.67400
101.94883	1146.19000	-0.66800
102.22385	1145.84000	-0.66600
102.49086	1146.40000	-0.66300
102.76988	1146.83000	-0.66000
103.04989	1146.97000	-0.65600
103.32891	1146.88000	-0.64800
103.60193	1146.08000	-0.64600
103.86994	1146.18000	-0.64500
104.14896	1146.23000	-0.64100
104.42397	1145.55000	-0.63900
104.68999	1145.70000	-0.63200
104.96900	1145.72000	-0.63000
105.24402	1144.89000	-0.62400
105.51103	1145.19000	-0.62200
105.79005	1145.52000	-0.61400
106.07007	1145.63000	-0.61400
106.34808	1145.66000	-0.60900
106.62410	1145.12000	-0.60600
106.89011	1145.26000	-0.59800
107.17013	1145.45000	-0.59600
107.45015	1145.52000	-0.59500
107.73016	1145.57000	-0.59100
108.01018	1145.53000	-0.58700
108.29019	1145.43000	-0.58100
108.57021	1145.33000	-0.58000
108.85023	1145.24000	-0.57500
109.13024	1145.26000	-0.57100
109.40826	1145.33000	-0.56700
109.68427	1144.91000	-0.56300
109.95029	1145.04000	-0.55700
110.23030	1144.99000	-0.55600
110.51032	1144.95000	-0.55100
110.79034	1144.99000	-0.54900
111.06935	1144.90000	-0.54300
111.34237	1144.19000	-0.54000
111.61038	1144.25000	-0.53300
111.88940	1144.16000	-0.53000
112.16441	1143.38000	-0.52900
112.43043	1143.72000	-0.52400
112.71045	1143.94000	-0.52000
112.98946	1144.22000	-0.51500
113.26448	1143.49000	-0.51400
113.53049	1143.75000	-0.50700
113.81051	1143.91000	-0.50600
114.09053	1144.04000	-0.50100
114.36954	1144.33000	-0.49600
114.64956	1144.50000	-0.49300
114.92857	1144.55000	-0.48600
115.20259	1143.92000	-0.48400
115.47060	1144.14000	-0.48300
115.74962	1144.27000	-0.47800
116.02764	1144.30000	-0.47600
116.30365	1143.60000	-0.46800
116.57067	1143.91000	-0.46400
116.84768	1144.12000	-0.46100
117.12270	1143.63000	-0.45700
117.39071	1144.02000	-0.45400
117.66773	1144.08000	-0.45300
117.94375	1143.63000	-0.44800
118.21076	1143.97000	-0.43900
118.48778	1144.09000	-0.43800
118.76179	1143.52000	-0.43300
119.02981	1143.90000	-0.43300
119.30782	1144.14000	-0.42700
119.58284	1143.53000	-0.42400
119.84985	1143.93000	-0.41800
120.12787	1144.19000	-0.41600
120.40289	1143.72000	-0.41200
120.67090	1143.87000	-0.40800
120.94992	1143.92000	-0.40400
121.22993	1143.85000	-0.40400
121.50995	1143.83000	-0.39500
121.78997	1143.82000	-0.39400
122.06998	1143.69000	-0.38800
122.35000	1143.56000	-0.38600
122.63001	1143.50000	-0.38000
122.91003	1143.49000	-0.37500
123.19005	1143.42000	-0.37200
123.47006	1143.29000	-0.36800
123.75008	1143.06000	-0.36500
124.03009	1142.93000	-0.36100
124.31011	1142.88000	-0.35700
124.59013	1142.83000	-0.35500
124.87014	1142.96000	-0.34600
125.15016	1142.92000	-0.34500
125.43017	1143.00000	-0.33800
125.71019	1142.99000	-0.33800
125.99021	1143.02000	-0.33400
126.27022	1142.98000	-0.32700
126.54924	1143.02000	-0.32500
126.82225	1142.53000	-0.32100
127.09027	1142.81000	-0.31700
127.37028	1142.98000	-0.31600
127.65030	1142.98000	-0.31000
127.93032	1143.05000	-0.30600
128.21033	1143.30000	-0.30200
128.48935	1143.44000	-0.29900
128.76936	1143.39000	-0.29200
129.04938	1143.36000	-0.29200
129.32940	1143.29000	-0.28400
129.60941	1143.16000	-0.28300
129.88943	1143.05000	-0.28000
130.16945	1142.99000	-0.27200
130.44746	1142.98000	-0.26700
130.72248	1142.40000	-0.26700
130.99049	1142.65000	-0.26300
131.26951	1142.76000	-0.25800
131.54952	1142.77000	-0.25300
131.82954	1142.62000	-0.24800
132.10956	1142.61000	-0.24900
132.38957	1142.59000	-0.24200
132.66959	1142.48000	-0.23800
132.94960	1142.43000	-0.23400
133.22962	1142.39000	-0.23000
133.50764	1142.46000	-0.22800
133.78265	1141.44000	-0.22600
134.05067	1141.69000	-0.21800
134.32968	1141.72000	-0.21700
134.60970	1141.87000	-0.21500
134.88972	1141.82000	-0.20800
135.16973	1141.87000	-0.20400
135.44975	1141.90000	-0.19800
135.72976	1141.93000	-0.19500
136.00978	1142.23000	-0.19500
136.28979	1142.38000	-0.18600
136.56981	1142.47000	-0.18200
136.84983	1142.49000	-0.17900
137.12984	1142.65000	-0.17500
137.40986	1142.85000	-0.17600
137.68988	1142.94000	-0.17000
137.96989	1142.84000	-0.16500
138.24991	1142.86000	-0.16000
138.52992	1143.00000	-0.15500
138.80994	1143.00000	-0.15300
139.08995	1142.96000	-0.14600
139.36997	1142.87000	-0.14500
139.64999	1142.89000	-0.14400
139.93000	1143.02000	-0.13900
140.21002	1143.14000	-0.13300
140.49004	1142.98000	-0.13100
140.77005	1142.87000	-0.12500
141.04907	1142.87000	-0.12100
141.32908	1142.82000	-0.11700
141.60210	1141.88000	-0.11300
141.87111	1141.98000	-0.11000
142.14913	1142.08000	-0.10800
142.42915	1142.23000	-0.09900
142.70916	1142.39000	-0.09500
142.98918	1142.39000	-0.09000
143.26919	1142.36000	-0.09000
143.54921	1142.41000	-0.08500
143.82923	1142.36000	-0.08200
144.10924	1142.34000	-0.07700
144.38926	1142.32000	-0.07400
144.66927	1142.12000	-0.06900
144.94929	1142.07000	-0.06600
145.22931	1141.96000	-0.06200
145.50932	1141.68000	-0.05600
145.78934	1141.69000	-0.05500
146.06935	1141.77000	-0.05000
146.34937	1141.91000	-0.04700
146.62939	1141.79000	-0.04100
146.90940	1141.71000	-0.03900
147.18942	1141.66000	-0.03600
147.46943	1141.44000	-0.03200
147.74945	1141.32000	-0.02500
148.02947	1141.45000	-0.02300
148.30948	1141.42000	-0.02000
148.58950	1141.40000	-0.01500
148.86951	1141.54000	-0.01000
149.14953	1141.37000	-0.01000
149.42955	1141.30000	-0.00100
149.70956	1141.28000	0.00000
149.98958	1141.32000	0.00200
150.26960	1141.40000	0.01000
150.54961	1141.41000	0.01300
150.82963	1141.36000	0.01900
151.10964	1141.37000	0.02100
151.38966	1141.34000	0.02600
151.66967	1141.51000	0.02700
151.94869	1141.67000	0.03000
152.22171	1141.08000	0.03800
152.48972	1141.30000	0.04000
152.76974	1141.38000	0.04500
153.04975	1141.61000	0.04700
153.32977	1141.71000	0.04800
153.60979	1141.72000	0.05800
153.88980	1141.77000	0.06000
154.16982	1141.81000	0.06100
154.44983	1141.91000	0.06900
154.72985	1142.11000	0.07100
155.00987	1142.31000	0.07200
155.28988	1142.34000	0.08000
155.56990	1142.45000	0.08700
155.84891	1142.64000	0.08700
156.12893	1142.74000	0.09100
156.40895	1142.90000	0.09500
156.68896	1142.90000	0.09800
156.96898	1142.99000	0.10100
157.24899	1143.13000	0.10600
157.52901	1143.18000	0.11000
157.80903	1143.24000	0.11700
158.08904	1143.29000	0.11700
158.36906	1143.30000	0.12200
158.64907	1143.32000	0.12800
158.92909	1143.57000	0.13100
159.20911	1143.72000	0.13800
159.48912	1143.90000	0.14000
159.76914	1143.85000	0.14300
160.04915	1143.77000	0.14800
160.32917	1143.64000	0.14900
160.60919	1143.57000	0.15100
160.88920	1143.73000	0.16100
161.16922	1143.93000	0.16400
161.44923	1144.04000	0.16500
161.72925	1144.28000	0.17200
162.00927	1144.38000	0.17400
162.28928	1144.42000	0.17700
162.56930	1144.32000	0.18300
162.84931	1144.37000	0.18500
163.12933	1144.47000	0.18900
163.40935	1144.53000	0.19400
163.68936	1144.79000	0.19800
163.96938	1144.97000	0.20000
164.24939	1145.04000	0.20700
164.52941	1145.11000	0.20800
164.80943	1145.33000	0.21300
165.08944	1145.49000	0.21600
165.36946	1145.58000	0.22400
165.64947	1145.72000	0.22300
165.92949	1145.94000	0.23000
166.20951	1145.89000	0.23300
166.48852	1146.10000	0.23800
166.76154	1145.19000	0.24100
167.03055	1145.72000	0.24500
167.30957	1146.14000	0.24800
167.58959	1146.52000	0.25300
167.86960	1146.83000	0.25700
168.14862	1147.10000	0.26300
168.42163	1146.44000	0.26300
168.69065	1146.88000	0.26900
168.96966	1147.07000	0.27500
169.24968	1147.35000	0.27800
169.52870	1147.40000	0.28100
169.80871	1147.29000	0.28200
170.08873	1147.28000	0.28500
170.36874	1147.46000	0.29400
170.64876	1147.71000	0.29400
170.92878	1147.72000	0.29900
171.20879	1147.71000	0.30200
171.48881	1147.70000	0.30900
171.76882	1147.51000	0.31100
172.04884	1147.48000	0.31700
172.32886	1147.49000	0.32100
172.60887	1147.37000	0.32300
172.88889	1147.14000	0.33000
173.16890	1147.02000	0.33000
173.44892	1147.00000	0.33800
173.72894	1146.96000	0.34000
174.00895	1146.77000	0.34200
174.28897	1146.42000	0.34800
174.56898	1146.16000	0.34900
174.84900	1146.09000	0.35300
175.12902	1146.10000	0.35800
175.40903	1146.05000	0.36200
175.68905	1145.83000	0.36500
175.96906	1145.61000	0.37200
176.24908	1145.71000	0.37200
176.52910	1145.62000	0.37700
176.80911	1145.42000	0.38000
177.08913	1145.24000	0.38800
177.36914	1145.25000	0.39000
177.64916	1145.07000	0.39300
177.92918	1144.95000	0.39400
178.20919	1144.85000	0.40400
178.48921	1144.60000	0.40600
178.76922	1144.37000	0.41000
179.04924	1143.90000	0.41700
179.32926	1143.51000	0.41900
179.60927	1143.32000	0.42200
179.88929	1143.09000	0.42900
180.16930	1142.78000	0.43000
180.44932	1142.73000	0.43500
180.72934	1142.58000	0.43900
